Data from Subt16__4__14-45-35-796.txt Node

Date: Wed Oct 20 14:45:35 CEST 2021
User: Praktikum
Spectrometer: USB4F03543
Trigger mode: 4
Integration Time (sec): 1,000000E-1
Scans to average: 1
Electric dark correction enabled: true
Nonlinearity correction enabled: false
Boxcar width: 0
XAxis mode: Wavelengths
Number of Pixels in Spectrum: 3648
>>>>>Begin Spectral Data<<<<<
179,969	54,78
180,181	54,78
180,394	54,78
180,606	-33,28
180,819	-45,57
181,031	13,82
181,243	67,07
181,456	1,54
181,668	3,58
181,88	44,54
182,093	-18,94
182,305	-10,75
182,518	-72,19
182,73	46,59
182,942	11,78
183,155	-2,56
183,367	-84,48
183,579	171,52
183,791	-68,09
184,004	17,92
184,216	62,98
184,428	77,31
184,641	-12,8
184,853	-70,14
185,065	54,78
185,277	-14,85
185,49	-86,53
185,702	-51,71
185,914	46,59
186,126	15,87
186,338	83,45
186,551	-18,94
186,763	5,63
186,975	-37,38
187,187	19,97
187,399	-0,51
187,612	13,82
187,824	-43,52
188,036	40,45
188,248	-2,56
188,46	-92,67
188,672	26,11
188,885	54,78
189,097	81,41
189,309	17,92
189,521	60,93
189,733	-27,14
189,945	17,92
190,157	34,3
190,369	-20,99
190,581	-12,8
190,794	-72,19
191,006	26,11
191,218	50,69
191,43	-37,38
191,642	-14,85
191,854	-115,2
192,066	-0,51
192,278	75,26
192,49	-53,76
192,702	9,73
192,914	44,54
193,126	-25,09
193,338	73,21
193,55	-51,71
193,762	-86,53
193,974	32,26
194,186	50,69
194,398	-55,81
194,61	-100,86
194,822	-0,51
195,034	52,74
195,246	-4,61
195,457	32,26
195,669	50,69
195,881	-31,23
196,093	-109,05
196,305	75,26
196,517	60,93
196,729	-49,66
196,941	30,21
197,153	-82,43
197,365	46,59
197,576	48,64
197,788	-35,33
198	-16,9
198,212	-35,33
198,424	-39,42
198,636	-59,9
198,847	-35,33
199,059	-123,39
199,271	-33,28
199,483	85,5
199,695	1,54
199,906	-39,42
200,118	-16,9
200,33	-29,18
200,542	56,83
200,753	-45,57
200,965	-10,75
201,177	89,6
201,389	40,45
201,6	42,5
201,812	34,3
202,024	-74,24
202,235	60,93
202,447	87,55
202,659	11,78
202,871	95,74
203,082	-39,42
203,294	34,3
203,506	-6,66
203,717	9,73
203,929	46,59
204,141	91,65
204,352	-78,33
204,564	30,21
204,775	-113,15
204,987	48,64
205,199	5,63
205,41	48,64
205,622	28,16
205,833	140,8
206,045	54,78
206,257	50,69
206,468	-0,51
206,68	-33,28
206,891	-39,42
207,103	-31,23
207,314	71,17
207,526	50,69
207,737	15,87
207,949	48,64
208,16	5,63
208,372	-27,14
208,583	-8,7
208,795	42,5
209,006	-55,81
209,218	122,37
209,429	19,97
209,641	-20,99
209,852	-41,47
210,064	-66,05
210,275	-72,19
210,487	7,68
210,698	50,69
210,909	3,58
211,121	28,16
211,332	-80,38
211,544	-43,52
211,755	-23,04
211,966	15,87
212,178	-51,71
212,389	46,59
212,6	-16,9
212,812	48,64
213,023	26,11
213,234	-27,14
213,446	-29,18
213,657	26,11
213,868	40,45
214,08	-8,7
214,291	54,78
214,502	-37,38
214,714	9,73
214,925	77,31
215,136	1,54
215,347	-150,01
215,559	7,68
215,77	5,63
215,981	-59,9
216,192	22,02
216,404	67,07
216,615	-33,28
216,826	58,88
217,037	7,68
217,249	30,21
217,46	-25,09
217,671	-100,86
217,882	3,58
218,093	-45,57
218,304	5,63
218,516	-2,56
218,727	38,4
218,938	32,26
219,149	79,36
219,36	9,73
219,571	22,02
219,782	-20,99
219,993	-18,94
220,205	-27,14
220,416	73,21
220,627	-43,52
220,838	-18,94
221,049	1,54
221,26	-49,66
221,471	34,3
221,682	-59,9
221,893	15,87
222,104	-20,99
222,315	19,97
222,526	56,83
222,737	1,54
222,948	101,89
223,159	38,4
223,37	-4,61
223,581	3,58
223,792	-27,14
224,003	40,45
224,214	-47,62
224,425	-72,19
224,636	28,16
224,847	-86,53
225,058	36,35
225,269	50,69
225,48	13,82
225,691	48,64
225,902	-45,57
226,112	81,41
226,323	30,21
226,534	48,64
226,745	40,45
226,956	-6,66
227,167	83,45
227,378	-8,7
227,589	-10,75
227,799	-12,8
228,01	-33,28
228,221	17,92
228,432	9,73
228,643	-33,28
228,853	13,82
229,064	77,31
229,275	-94,72
229,486	-20,99
229,697	-35,33
229,907	-0,51
230,118	-41,47
230,329	-76,29
230,54	95,74
230,75	48,64
230,961	-20,99
231,172	-35,33
231,383	26,11
231,593	-176,64
231,804	28,16
232,015	3,58
232,225	122,37
232,436	-10,75
232,647	5,63
232,857	40,45
233,068	124,41
233,279	-4,61
233,489	75,26
233,7	95,74
233,91	3,58
234,121	-90,62
234,332	-57,86
234,542	-25,09
234,753	85,5
234,964	-23,04
235,174	-35,33
235,385	48,64
235,595	48,64
235,806	-78,33
236,016	1,54
236,227	26,11
236,437	-49,66
236,648	71,17
236,858	87,55
237,069	71,17
237,279	-8,7
237,49	28,16
237,7	-6,66
237,911	-8,7
238,121	17,92
238,332	58,88
238,542	71,17
238,753	-61,95
238,963	-41,47
239,174	85,5
239,384	15,87
239,595	32,26
239,805	13,82
240,015	32,26
240,226	-6,66
240,436	34,3
240,647	28,16
240,857	-76,29
241,067	1,54
241,278	40,45
241,488	-94,72
241,698	-53,76
241,909	52,74
242,119	26,11
242,329	44,54
242,54	-109,05
242,75	-33,28
242,96	58,88
243,171	32,26
243,381	81,41
243,591	-51,71
243,801	-68,09
244,012	36,35
244,222	-18,94
244,432	-18,94
244,642	110,08
244,853	-12,8
245,063	-23,04
245,273	9,73
245,483	-0,51
245,694	40,45
245,904	73,21
246,114	-10,75
246,324	-23,04
246,534	58,88
246,744	69,12
246,955	3,58
247,165	-33,28
247,375	-57,86
247,585	-92,67
247,795	-96,77
248,005	54,78
248,215	-10,75
248,425	-18,94
248,636	134,65
248,846	5,63
249,056	-4,61
249,266	-8,7
249,476	83,45
249,686	24,06
249,896	-68,09
250,106	38,4
250,316	58,88
250,526	42,5
250,736	19,97
250,946	89,6
251,156	-57,86
251,366	-107,01
251,576	38,4
251,786	17,92
251,996	-64
252,206	-33,28
252,416	-37,38
252,626	-31,23
252,836	105,98
253,046	-72,19
253,256	50,69
253,466	-0,51
253,676	-43,52
253,885	54,78
254,095	-129,53
254,305	17,92
254,515	-14,85
254,725	40,45
254,935	87,55
255,145	-33,28
255,355	163,33
255,564	11,78
255,774	-55,81
255,984	-25,09
256,194	83,45
256,404	-41,47
256,614	-88,57
256,823	-61,95
257,033	-2,56
257,243	34,3
257,453	-39,42
257,662	28,16
257,872	32,26
258,082	36,35
258,292	-90,62
258,501	-20,99
258,711	-0,51
258,921	-8,7
259,131	5,63
259,34	44,54
259,55	34,3
259,76	-51,71
259,969	11,78
260,179	-20,99
260,389	-23,04
260,598	-8,7
260,808	30,21
261,018	75,26
261,227	-45,57
261,437	142,85
261,647	-20,99
261,856	7,68
262,066	-10,75
262,275	-162,3
262,485	-8,7
262,694	105,98
262,904	77,31
263,114	-68,09
263,323	19,97
263,533	34,3
263,742	-78,33
263,952	-14,85
264,161	15,87
264,371	73,21
264,58	28,16
264,79	93,69
264,999	13,82
265,209	-27,14
265,418	-102,91
265,628	-37,38
265,837	34,3
266,047	7,68
266,256	-57,86
266,466	7,68
266,675	-10,75
266,884	-35,33
267,094	-53,76
267,303	-74,24
267,513	62,98
267,722	24,06
267,931	-6,66
268,141	48,64
268,35	-33,28
268,559	-51,71
268,769	5,63
268,978	-64
269,187	24,06
269,397	-25,09
269,606	56,83
269,815	-18,94
270,025	65,02
270,234	-41,47
270,443	-0,51
270,653	22,02
270,862	3,58
271,071	79,36
271,28	-6,66
271,49	-10,75
271,699	71,17
271,908	-68,09
272,117	62,98
272,327	28,16
272,536	-23,04
272,745	-10,75
272,954	79,36
273,163	7,68
273,372	-61,95
273,582	85,5
273,791	28,16
274	-35,33
274,209	-8,7
274,418	97,79
274,627	7,68
274,836	-23,04
275,046	13,82
275,255	-117,25
275,464	56,83
275,673	-10,75
275,882	-61,95
276,091	26,11
276,3	22,02
276,509	26,11
276,718	19,97
276,927	-49,66
277,136	1,54
277,345	36,35
277,554	-8,7
277,763	155,13
277,972	40,45
278,181	-45,57
278,39	-64
278,599	1,54
278,808	105,98
279,017	-127,49
279,226	52,74
279,435	71,17
279,644	-86,53
279,853	42,5
280,062	-0,51
280,271	-16,9
280,48	30,21
280,688	54,78
280,897	-4,61
281,106	48,64
281,315	13,82
281,524	-12,8
281,733	-27,14
281,942	71,17
282,151	-74,24
282,359	108,03
282,568	40,45
282,777	54,78
282,986	73,21
283,195	11,78
283,403	-84,48
283,612	44,54
283,821	-27,14
284,03	-45,57
284,238	-0,51
284,447	5,63
284,656	9,73
284,865	54,78
285,073	9,73
285,282	101,89
285,491	-12,8
285,699	105,98
285,908	105,98
286,117	48,64
286,325	-33,28
286,534	-10,75
286,743	-16,9
286,951	-20,99
287,16	15,87
287,369	24,06
287,577	65,02
287,786	120,32
287,995	83,45
288,203	-31,23
288,412	48,64
288,62	22,02
288,829	-2,56
289,037	15,87
289,246	-12,8
289,455	54,78
289,663	3,58
289,872	44,54
290,08	-4,61
290,289	56,83
290,497	62,98
290,706	50,69
290,914	24,06
291,123	30,21
291,331	11,78
291,54	124,41
291,748	122,37
291,957	105,98
292,165	3,58
292,373	34,3
292,582	-0,51
292,79	42,5
292,999	-20,99
293,207	-25,09
293,415	26,11
293,624	-12,8
293,832	-47,62
294,041	105,98
294,249	65,02
294,457	30,21
294,666	5,63
294,874	28,16
295,082	-41,47
295,291	26,11
295,499	5,63
295,707	54,78
295,915	67,07
296,124	77,31
296,332	95,74
296,54	71,17
296,749	42,5
296,957	11,78
297,165	30,21
297,373	-8,7
297,581	-4,61
297,79	-4,61
297,998	13,82
298,206	69,12
298,414	124,41
298,622	22,02
298,831	48,64
299,039	-35,33
299,247	91,65
299,455	54,78
299,663	46,59
299,871	5,63
300,08	75,26
300,288	93,69
300,496	-8,7
300,704	24,06
300,912	-59,9
301,12	99,84
301,328	62,98
301,536	3,58
301,744	-6,66
301,952	38,4
302,16	85,5
302,368	38,4
302,576	36,35
302,784	110,08
302,992	112,13
303,2	52,74
303,408	58,88
303,616	146,94
303,824	32,26
304,032	183,81
304,24	124,41
304,448	101,89
304,656	157,18
304,864	120,32
305,072	239,1
305,28	151,04
305,488	136,7
305,696	185,85
305,904	247,29
306,111	370,17
306,319	263,68
306,527	304,64
306,735	318,97
306,943	278,01
307,151	378,36
307,359	388,6
307,566	417,27
307,774	579,06
307,982	394,75
308,19	364,03
308,398	433,66
308,605	501,24
308,813	503,29
309,021	542,2
309,229	523,77
309,436	611,83
309,644	517,62
309,852	654,84
310,06	654,84
310,267	599,54
310,475	826,87
310,683	906,74
310,89	863,73
311,098	867,83
311,306	957,94
311,513	972,27
311,721	947,7
311,929	1093,1
312,136	1127,92
312,344	1084,91
312,552	1101,3
312,759	1025,52
312,967	1250,8
313,174	1172,97
313,382	1320,43
313,589	1291,76
313,797	1353,2
314,005	1418,73
314,212	1404,39
314,42	1383,91
314,627	1508,84
314,835	1590,76
315,042	1504,75
315,25	1531,37
315,457	1490,41
315,665	1484,27
315,872	1584,62
316,08	1650,15
316,287	1797,6
316,495	1820,13
316,702	1889,76
316,909	1887,72
317,117	2080,22
317,324	2104,8
317,532	2172,38
317,739	2184,67
317,946	2162,14
318,154	2108,9
318,361	2131,42
318,569	2242,01
318,776	2219,49
318,983	2256,35
319,191	2389,47
319,398	2538,97
319,605	2575,83
319,813	2620,89
320,02	2659,8
320,227	2786,77
320,434	2975,19
320,642	2999,76
320,849	2946,52
321,056	2942,42
321,264	2960,85
321,471	3016,15
321,678	2981,33
321,885	2903,51
322,092	2907,6
322,3	2962,9
322,507	2872,79
322,714	2821,59
322,921	2981,33
323,128	2854,36
323,336	2952,66
323,543	3139,02
323,75	3339,73
323,957	3333,58
324,164	3614,15
324,371	3603,91
324,578	3734,98
324,786	3628,49
324,993	4011,46
325,2	3868,1
325,407	4261,31
325,614	4265,41
325,821	4459,96
326,028	4578,75
326,235	4644,28
326,442	4842,93
326,649	4896,18
326,856	4851,13
327,063	5002,68
327,27	4697,53
327,477	4703,67
327,684	4791,73
327,891	4797,88
328,098	4672,95
328,305	5039,54
328,512	4801,97
328,719	5303,73
328,926	5203,38
329,133	5436,85
329,34	5457,32
329,546	5694,89
329,753	5584,3
329,96	5703,08
330,167	5596,59
330,374	5543,34
330,581	5369,26
330,788	5356,97
330,995	5186,99
331,201	5244,34
331,408	5328,3
331,615	5522,86
331,822	5254,58
332,029	5270,96
332,235	5346,73
332,442	5283,25
332,649	5483,95
332,856	5432,75
333,062	5412,27
333,269	5502,38
333,476	5125,55
333,683	5625,26
333,889	5356,97
334,096	5688,75
334,303	5451,18
334,509	5576,11
334,716	5615,02
334,923	5612,97
335,129	5551,53
335,336	5471,66
335,543	5338,54
335,749	5363,12
335,956	5012,92
336,163	5209,52
336,369	4955,57
336,576	5150,13
336,782	4887,99
336,989	5041,59
337,196	5068,21
337,402	5293,49
337,609	5180,85
337,815	5445,04
338,022	5508,52
338,228	5901,73
338,435	5662,12
338,641	5758,38
338,848	5916,07
339,054	6051,24
339,261	6008,23
339,467	5963,17
339,674	6333,86
339,88	6262,18
340,087	6305,18
340,293	6479,26
340,5	6120,87
340,706	6075,81
340,912	6151,59
341,119	5977,51
341,325	6081,96
341,532	6602,14
341,738	6063,52
341,944	6505,88
342,151	6399,39
342,357	6534,56
342,563	6440,35
342,77	6565,28
342,976	6194,59
343,182	6327,71
343,389	6067,62
343,595	5844,39
343,801	5713,32
344,007	5596,59
344,214	5432,75
344,42	5711,27
344,626	5754,28
344,832	5979,56
345,039	5993,89
345,245	6116,77
345,451	6139,3
345,657	6170,02
345,864	6239,65
346,07	6145,44
346,276	6395,29
346,482	6505,88
346,688	6530,46
346,894	6227,36
347,1	6327,71
347,307	6264,22
347,513	6243,74
347,719	6327,71
347,925	6192,55
348,131	6448,54
348,337	6452,64
348,543	6522,27
348,749	6258,08
348,955	6466,97
349,161	6223,27
349,367	6618,52
349,573	6714,78
349,779	6837,66
349,985	6966,68
350,191	7370,13
350,397	7136,66
350,603	7259,54
350,809	6882,71
351,015	7157,14
351,221	6970,77
351,427	7095,7
351,633	6774,17
351,839	7030,16
352,045	6731,16
352,251	6792,6
352,457	6655,39
352,663	7048,6
352,869	6860,18
353,075	7171,47
353,28	7423,37
353,486	7742,86
353,692	7826,82
353,898	7722,38
354,104	7865,74
354,31	7845,26
354,515	7900,55
354,721	8054,15
354,927	7835,02
355,133	7867,78
355,339	7581,07
355,544	7796,11
355,75	7277,97
355,956	7185,81
356,162	6858,14
356,367	6743,45
356,573	6376,86
356,779	6260,13
356,984	6151,59
357,19	6038,95
357,396	5963,17
357,602	6069,67
357,807	5842,34
358,013	5785
358,218	5516,72
358,424	5852,58
358,63	6161,83
358,835	6643,1
359,041	6833,56
359,247	7333,26
359,452	7808,39
359,658	7751,05
359,863	7667,08
360,069	7550,35
360,274	7271,83
360,48	7243,15
360,685	7138,71
360,891	7060,88
361,097	7064,98
361,302	7155,09
361,508	7335,31
361,713	7030,16
361,918	7564,68
362,124	7740,81
362,329	8009,09
362,535	8217,99
362,74	7744,91
362,946	8058,25
363,151	8072,58
363,357	8056,2
363,562	8041,86
363,767	8236,42
363,973	8203,65
364,178	8136,07
364,383	8451,46
364,589	8560
364,794	8525,18
365	9037,17
365,205	9446,77
365,41	9663,85
365,615	9932,14
365,821	10057,06
366,026	10032,49
366,231	9887,08
366,437	10171,75
366,642	10106,21
366,847	10007,91
367,052	9807,21
367,258	9887,08
367,463	9708,91
367,668	9448,82
367,873	9518,45
368,078	9254,26
368,284	9528,69
368,489	9594,22
368,694	9622,89
368,899	9729,39
369,104	10210,66
369,309	10272,1
369,515	10433,89
369,72	9985,38
369,925	10077,54
370,13	9950,57
370,335	9846,12
370,54	9844,07
370,745	9901,42
370,95	9688,43
371,155	9981,29
371,36	9610,61
371,565	9602,41
371,77	9352,56
371,975	9018,74
372,18	8691,07
372,385	8629,63
372,59	8611,2
372,795	8379,78
373	8023,43
373,205	7861,64
373,41	7662,99
373,615	8174,98
373,82	7710,09
374,025	8146,31
374,23	7769,48
374,435	7845,26
374,64	7966,09
374,845	8283,52
375,05	8740,22
375,254	8940,92
375,459	9313,65
375,664	9123,19
375,869	9137,52
376,074	9207,16
376,279	9129,33
376,483	9567,6
376,688	9581,93
376,893	9989,48
377,098	10362,21
377,303	10515,81
377,507	10927,45
377,712	11316,56
377,917	10831,19
378,122	10931,55
378,326	10505,57
378,531	10087,78
378,736	9528,69
378,94	9481,58
379,145	9409,9
379,35	9196,92
379,554	9373,04
379,759	9411,95
379,964	9303,41
380,168	9549,17
380,373	9534,83
380,578	9768,3
380,782	9520,49
380,987	9358,71
381,191	8596,86
381,396	8045,96
381,601	7994,76
381,805	7693,71
382,01	6944,15
382,214	6464,93
382,419	6286,75
382,623	6387,1
382,828	5997,99
383,032	6241,7
383,237	6174,11
383,441	6122,91
383,646	6768,02
383,85	7294,35
384,055	7462,29
384,259	8058,25
384,464	8154,5
384,668	8148,36
384,872	8359,3
385,077	8070,53
385,281	8037,77
385,486	7955,85
385,69	7916,94
385,894	8516,99
386,099	8263,04
386,303	8275,33
386,507	8420,74
386,712	8326,53
386,916	8273,28
387,12	8295,81
387,325	8355,2
387,529	8445,31
387,733	8109,44
387,937	8523,13
388,142	8451,46
388,346	8670,59
388,55	8664,44
388,754	9323,89
388,959	9307,51
389,163	9747,82
389,367	10128,74
389,571	10050,92
389,775	10413,41
389,98	10521,95
390,184	10466,66
390,388	11181,4
390,592	10876,25
390,796	10814,81
391	10886,49
391,204	11005,27
391,409	10489,18
391,613	10349,92
391,817	9657,71
392,021	9071,99
392,225	8232,32
392,429	7462,29
392,633	6577,56
392,837	6294,94
393,041	5832,1
393,245	6063,52
393,449	6458,78
393,653	7048,6
393,857	7808,39
394,061	8557,95
394,265	9375,09
394,469	10081,64
394,673	10466,66
394,877	10634,59
395,081	10943,83
395,285	10505,57
395,489	9528,69
395,693	9518,45
395,896	8439,17
396,1	7718,28
396,304	7372,18
396,508	7191,95
396,712	7062,93
396,916	7984,52
397,12	8727,93
397,323	9766,25
397,527	10716,51
397,731	12039,5
397,935	12383,56
398,139	12934,46
398,342	13819,18
398,546	13759,79
398,75	13892,91
398,954	14376,23
399,157	13823,28
399,361	14296,36
399,565	14372,13
399,769	14519,59
399,972	14529,83
400,176	14859,55
400,38	14869,79
400,583	15437,08
400,787	15459,6
400,991	15131,93
401,194	15697,17
401,398	15846,67
401,601	15609,11
401,805	15355,16
402,009	15959,31
402,212	15422,74
402,416	15723,79
402,619	15912,21
402,823	15660,31
403,026	15447,32
403,23	15068,44
403,433	15463,7
403,637	14966,04
403,841	15193,37
404,044	15535,38
404,247	15971,6
404,451	15451,41
404,654	14996,76
404,858	15410,45
405,061	15340,82
405,265	15312,15
405,468	15793,42
405,672	14703,9
405,875	14546,21
406,078	15041,82
406,282	15158,55
406,485	14425,38
406,689	15416,6
406,892	15619,35
407,095	14943,52
407,299	15041,82
407,502	15715,6
407,705	15811,85
407,909	16092,43
408,112	16604,42
408,315	16852,22
408,518	16901,37
408,722	16358,66
408,925	15949,07
409,128	16016,65
409,331	15811,85
409,535	15629,59
409,738	15435,03
409,941	15342,87
410,144	15451,41
410,347	16325,89
410,551	16254,22
410,754	16663,81
410,957	16897,28
411,16	17386,74
411,363	17192,19
411,566	17618,16
411,769	17661,17
411,973	17687,79
412,176	17313,02
412,379	17829,1
412,582	17335,54
412,785	17044,73
412,988	17818,86
413,191	17233,15
413,394	16684,29
413,597	17503,48
413,8	17376,5
414,003	17562,87
414,206	17190,14
414,409	17847,54
414,612	16807,17
414,815	17245,43
415,018	17153,27
415,221	17452,28
415,424	17636,59
415,627	17667,31
415,83	17450,23
416,033	17589,49
416,235	18064,62
416,438	17853,68
416,641	17157,37
416,844	17183,99
417,047	17304,82
417,25	16682,24
417,453	17069,31
417,655	16784,64
417,858	17200,38
418,061	16684,29
418,264	16678,15
418,467	17263,86
418,669	16893,18
418,872	17024,25
419,075	16884,99
419,278	16768,26
419,48	17001,72
419,683	17362,17
419,886	17157,37
420,089	18533,61
420,291	17458,42
420,494	17966,32
420,697	17698,03
420,899	18003,18
421,102	17030,4
421,305	17806,58
421,507	17011,96
421,71	17394,93
421,912	17188,09
422,115	17200,38
422,318	16098,57
422,52	16827,65
422,723	17100,03
422,925	17204,47
423,128	16764,16
423,33	16907,52
423,533	16532,74
423,735	17372,41
423,938	17470,71
424,14	17108,22
424,343	16874,75
424,545	17497,33
424,748	16887,04
424,95	16913,66
425,153	17540,34
425,355	17378,55
425,558	17562,87
425,76	17108,22
425,962	16848,13
426,165	16477,44
426,367	17612,02
426,57	17464,57
426,772	16563,46
426,974	16831,74
427,177	16102,67
427,379	16553,22
427,581	16657,67
427,784	17034,49
427,986	15832,33
428,188	16520,45
428,39	16841,98
428,593	15742,22
428,795	16274,7
428,997	15400,21
429,2	14423,33
429,402	14636,32
429,604	14124,33
429,806	13270,33
430,008	13258,04
430,211	13663,54
430,413	14093,61
430,615	14636,32
430,817	15754,51
431,019	16676,1
431,221	17214,71
431,423	17411,32
431,626	17796,34
431,828	18023,66
432,03	17941,74
432,232	17777,9
432,434	18500,84
432,636	19297,5
432,838	18023,66
433,04	17958,13
433,242	18330,86
433,444	17102,08
433,646	17448,18
433,848	18175,21
434,05	18148,59
434,252	18226,41
434,454	18480,36
434,656	19041,5
434,858	19752,15
435,06	19641,56
435,262	19416,28
435,464	20542,66
435,666	20499,66
435,868	19772,63
436,07	20747,46
436,271	21544,12
436,473	20303,05
436,675	20503,75
436,877	19821,78
437,079	18775,27
437,281	19340,5
437,482	19274,97
437,684	19336,41
437,886	18410,73
438,088	18072,81
438,29	18343,14
438,491	18900,19
438,693	18719,97
438,895	19573,97
439,097	21120,19
439,298	19832,02
439,5	19637,46
439,702	19760,34
439,903	19236,06
440,105	20202,7
440,307	20925,63
440,508	20737,22
440,71	21499,06
440,912	21048,51
441,113	20831,43
441,315	21277,88
441,517	21931,19
441,718	22238,38
441,92	21865,65
442,121	21214,4
442,323	22172,85
442,524	21712,05
442,726	21869,75
442,928	21494,97
443,129	22398,12
443,331	20896,96
443,532	21537,98
443,734	21818,55
443,935	22224,04
444,136	20935,87
444,338	22078,64
444,539	21642,42
444,741	21222,59
444,942	20518,09
445,144	20581,57
445,345	20942,02
445,546	21572,79
445,748	20534,47
445,949	20571,33
446,151	21134,53
446,352	21802,16
446,553	21712,05
446,755	21413,05
446,956	22715,56
447,157	22566,06
447,359	22209,71
